# E(eV)    s-DOS    p-DOS    d-DOS    Total
-14.768924 0.000000 0.000000 0.000000 0.000000
-14.583924 0.000000 0.000000 0.000000 0.000000
-14.398924 0.000000 0.000000 0.000000 0.000000
-14.213924 0.000000 0.000000 0.000000 0.000000
-14.028924 0.000000 0.000000 0.000000 0.000000
-13.843924 0.000000 0.000000 0.000000 0.000000
-13.658924 0.000000 0.000000 0.000000 0.000000
-13.473924 0.000000 0.000000 0.000000 0.000000
-13.288924 0.000000 0.000000 0.000000 0.000000
-13.103924 0.000000 0.000000 0.000000 0.000000
-12.918924 0.000000 0.000000 0.000000 0.000000
-12.733924 0.000000 0.000000 0.000000 0.000000
-12.548924 0.000000 0.000000 0.000000 0.000000
-12.363924 0.000161 0.000000 0.000000 0.000162
-12.178924 0.010900 0.000062 0.000004 0.010966
-11.993924 0.042710 0.000554 0.000037 0.043300
-11.808924 0.064510 0.001549 0.000110 0.066169
-11.623924 0.080390 0.002867 0.000220 0.083477
-11.438924 0.093900 0.004436 0.000367 0.098703
-11.253924 0.106100 0.006212 0.000555 0.112867
-11.068924 0.117700 0.008181 0.000789 0.126670
-10.883924 0.129700 0.010390 0.001079 0.141169
-10.697924 0.142000 0.012830 0.001437 0.156267
-10.512924 0.153600 0.015300 0.001860 0.170760
-10.327924 0.168000 0.018100 0.002397 0.188497
-10.142924 0.189200 0.021790 0.003153 0.214143
-9.957924 0.217900 0.025890 0.004284 0.248074
-9.772924 0.258300 0.031420 0.005810 0.295530
-9.587924 0.249800 0.033240 0.006058 0.289098
-9.402924 0.225100 0.032610 0.005846 0.263556
-9.217924 0.210300 0.033540 0.005793 0.249633
-9.032924 0.183800 0.031370 0.005430 0.220600
-8.847924 0.173200 0.032530 0.005401 0.211131
-8.662924 0.134400 0.026700 0.004490 0.165590
-8.477924 0.130700 0.028450 0.004560 0.163710
-8.292924 0.086100 0.020060 0.003220 0.109380
-8.107924 0.062440 0.015880 0.002395 0.080715
-7.922924 0.019860 0.005739 0.000824 0.026423
-7.737924 0.061370 0.019110 0.002655 0.083135
-7.552924 0.065890 0.022060 0.003049 0.090999
-7.367924 0.125400 0.044870 0.006037 0.176307
-7.182924 0.155500 0.077970 0.007368 0.240838
-6.997924 0.284700 0.177800 0.013220 0.475720
-6.812924 0.203600 0.131900 0.010330 0.345830
-6.627924 0.163700 0.103500 0.009318 0.276518
-6.441924 0.123000 0.082650 0.007598 0.213248
-6.256924 0.116800 0.078420 0.007889 0.203109
-6.071924 0.093450 0.067420 0.006801 0.167671
-5.886924 0.088130 0.064920 0.006974 0.160024
-5.701924 0.073290 0.056230 0.006237 0.135757
-5.516924 0.063590 0.050680 0.005804 0.120074
-5.331924 0.062420 0.052110 0.006119 0.120649
-5.146924 0.052100 0.046840 0.005562 0.104502
-4.961924 0.045700 0.040590 0.005173 0.091463
-4.776924 0.040210 0.040880 0.004947 0.086037
-4.591924 0.040500 0.097900 0.007130 0.145530
-4.406924 0.037430 0.216800 0.011260 0.265490
-4.221924 0.041300 0.278700 0.014680 0.334680
-4.036924 0.043360 0.258800 0.015150 0.317310
-3.851924 0.038210 0.249900 0.015100 0.303210
-3.666924 0.040380 0.263700 0.016910 0.320990
-3.481924 0.036250 0.279700 0.017930 0.333880
-3.296924 0.034270 0.314300 0.019980 0.368550
-3.111924 0.032920 0.376700 0.022880 0.432500
-2.926924 0.028790 0.422700 0.025410 0.476900
-2.741924 0.027070 0.418100 0.027420 0.472590
-2.556924 0.023670 0.407400 0.028700 0.459770
-2.370924 0.021320 0.398900 0.030180 0.450400
-2.185924 0.018360 0.385100 0.030990 0.434450
-2.000924 0.015820 0.380500 0.032360 0.428680
-1.815924 0.013490 0.376100 0.033810 0.423400
-1.630924 0.011020 0.365100 0.034580 0.410700
-1.445924 0.008223 0.333300 0.033260 0.374783
-1.260924 0.006460 0.247600 0.027420 0.281480
-1.075924 0.004608 0.185100 0.022700 0.212408
-0.890924 0.003104 0.142200 0.019090 0.164394
-0.705924 0.002077 0.108600 0.015970 0.126647
-0.520924 0.000977 0.076320 0.012230 0.089527
-0.335924 0.000308 0.042300 0.007363 0.049971
-0.150924 0.000024 0.006842 0.001255 0.008121
0.034076 0.000000 0.000040 0.000007 0.000047
0.219076 0.000101 0.000109 0.000135 0.000345
0.404076 0.003539 0.003945 0.004857 0.012341
0.589076 0.012830 0.015040 0.018280 0.046150
0.774076 0.020800 0.026830 0.030780 0.078410
0.959076 0.025190 0.035900 0.038640 0.099730
1.144076 0.030210 0.047200 0.047690 0.125100
1.329076 0.039110 0.059450 0.057780 0.156340
1.514076 0.056880 0.075470 0.070520 0.202870
1.700076 0.073370 0.095160 0.084180 0.252710
1.885076 0.097660 0.126500 0.105500 0.329660
2.070076 0.123400 0.163700 0.127600 0.414700
2.255076 0.112800 0.174000 0.125100 0.411900
2.440076 0.087100 0.158500 0.109400 0.355000
2.625076 0.069220 0.145700 0.099230 0.314150
2.810076 0.056690 0.142400 0.091910 0.291000
2.995076 0.051100 0.207100 0.136700 0.394900
3.180076 0.061160 0.296400 0.197800 0.555360
3.365076 0.058130 0.241900 0.161500 0.461530
3.550076 0.059810 0.235300 0.157900 0.453010
3.735076 0.058160 0.214700 0.144400 0.417260
3.920076 0.040360 0.179800 0.122300 0.342460
4.105076 0.038270 0.178600 0.128200 0.345070
4.290076 0.038920 0.175100 0.126500 0.340520
4.475076 0.045790 0.197500 0.144400 0.387690
4.660076 0.044380 0.174400 0.124100 0.342880
4.845076 0.045070 0.181300 0.127700 0.354070
5.030076 0.043460 0.170200 0.124900 0.338560
5.215076 0.040410 0.171900 0.122000 0.334310
5.400076 0.040650 0.170000 0.124700 0.335350
5.585076 0.034120 0.153800 0.110100 0.298020
5.770076 0.032730 0.166800 0.123000 0.322530
5.956076 0.028180 0.146200 0.109400 0.283780
6.141076 0.026330 0.150000 0.125900 0.302230
6.326076 0.028900 0.152200 0.140500 0.321600
6.511076 0.034150 0.145200 0.157800 0.337150
6.696076 0.032670 0.159300 0.161200 0.353170
6.881076 0.029880 0.138500 0.137300 0.305680
7.066076 0.029450 0.153500 0.140600 0.323550
7.251076 0.028390 0.157700 0.152400 0.338490
7.436076 0.027480 0.143400 0.155100 0.325980
7.621076 0.027500 0.181200 0.184200 0.392900
7.806076 0.026460 0.144700 0.153400 0.324560
7.991076 0.026360 0.157600 0.159000 0.342960
8.176076 0.026600 0.144800 0.157300 0.328700
8.361076 0.025680 0.123500 0.145700 0.294880
8.546076 0.026800 0.163300 0.170700 0.360800
8.731076 0.030760 0.135700 0.170700 0.337160
8.916076 0.033330 0.141100 0.155700 0.330130
9.101076 0.038220 0.160500 0.180900 0.379620
9.286076 0.033650 0.133000 0.163500 0.330150
9.471076 0.035050 0.146300 0.165300 0.346650
9.656076 0.030560 0.145300 0.181100 0.356960
9.841076 0.027670 0.125900 0.164600 0.318170
10.027076 0.031120 0.139300 0.178900 0.349320
10.212076 0.022450 0.124500 0.165700 0.312650
10.397076 0.023630 0.123700 0.157000 0.304330
10.582076 0.026820 0.138900 0.177700 0.343420
10.767076 0.022910 0.125200 0.165400 0.313510
10.952076 0.032060 0.139700 0.177000 0.348760
11.137076 0.034140 0.142300 0.171200 0.347640
11.322076 0.026010 0.106900 0.126900 0.259810
11.507076 0.030470 0.115800 0.136500 0.282770
11.692076 0.031870 0.121200 0.161300 0.314370
11.877076 0.028690 0.123700 0.178200 0.330590
12.062076 0.033010 0.133700 0.194100 0.360810
12.247076 0.034560 0.152900 0.217800 0.405260
12.432076 0.029790 0.136800 0.197400 0.363990
12.617076 0.033790 0.157400 0.209500 0.400690
12.802076 0.027070 0.137000 0.189400 0.353470
12.987076 0.027000 0.142000 0.185900 0.354900
13.172076 0.026600 0.147800 0.184900 0.359300
13.357076 0.026020 0.146000 0.184500 0.356520
13.542076 0.028270 0.164600 0.202400 0.395270
13.727076 0.032650 0.189200 0.249700 0.471550
13.912076 0.024760 0.183700 0.214100 0.422560
14.097076 0.019240 0.206500 0.190900 0.416640
14.283076 0.012490 0.157600 0.162000 0.332090
14.468076 0.011520 0.135900 0.151600 0.299020
14.653076 0.012320 0.131300 0.172000 0.315620
14.838076 0.014090 0.125900 0.196300 0.336290
15.023076 0.019830 0.121100 0.228400 0.369330
15.208076 0.020210 0.128500 0.259600 0.408310
15.393076 0.016260 0.122800 0.243700 0.382760
15.578076 0.010460 0.109200 0.198800 0.318460
15.763076 0.008477 0.103500 0.184600 0.296577
15.948076 0.008088 0.103200 0.188600 0.299888
16.133076 0.010170 0.097380 0.187000 0.294550
16.318076 0.013370 0.092040 0.192000 0.297410
16.503076 0.020180 0.097880 0.209100 0.327160
16.688076 0.024500 0.093020 0.233800 0.351320
16.873076 0.022730 0.096140 0.230700 0.349570
17.058076 0.022460 0.095890 0.225600 0.343950
17.243076 0.020810 0.091570 0.216400 0.328780
17.428076 0.022510 0.098030 0.232000 0.352540
17.613076 0.022670 0.108900 0.253000 0.384570
17.798076 0.022510 0.104100 0.254700 0.381310
17.983076 0.022690 0.109100 0.260400 0.392190
18.168076 0.023220 0.117200 0.278900 0.419320
18.354076 0.022320 0.120800 0.294100 0.437220
18.539076 0.021260 0.098960 0.258400 0.378620
18.724076 0.019780 0.096410 0.267700 0.383890
18.909076 0.025700 0.109800 0.321100 0.456600
19.094076 0.027050 0.109600 0.334200 0.470850
19.279076 0.022910 0.098290 0.292000 0.413200
19.464076 0.023530 0.102500 0.295900 0.421930
19.649076 0.020090 0.100500 0.283000 0.403590
19.834076 0.018830 0.095030 0.277300 0.391160
20.019076 0.014220 0.075310 0.200200 0.289730
20.204076 0.013360 0.083630 0.239100 0.336090
20.389076 0.012750 0.097950 0.285200 0.395900
20.574076 0.012990 0.087440 0.254800 0.355230
20.759076 0.015070 0.104800 0.281500 0.401370
20.944076 0.012920 0.096310 0.263000 0.372230
21.129076 0.013160 0.102100 0.311800 0.427060
21.314076 0.013570 0.094060 0.288600 0.396230
21.499076 0.013490 0.087900 0.288600 0.389990
21.684076 0.015800 0.094560 0.335100 0.445460
21.869076 0.013810 0.086000 0.318800 0.418610
22.054076 0.012540 0.077770 0.315400 0.405710
22.239076 0.011560 0.067470 0.310600 0.389630
22.425076 0.014290 0.063870 0.290300 0.368460
22.610076 0.013510 0.061720 0.281800 0.357030
22.795076 0.015500 0.069010 0.297600 0.382110
22.980076 0.019620 0.071700 0.310000 0.401320
23.165076 0.018200 0.065650 0.296100 0.379950
23.350076 0.013590 0.051220 0.256100 0.320910
23.535076 0.015850 0.053350 0.269200 0.338400
23.720076 0.015970 0.052010 0.286500 0.354480
23.905076 0.014650 0.048080 0.282600 0.345330
24.090076 0.014420 0.048000 0.217300 0.279720
24.275076 0.016770 0.049360 0.205800 0.271930
24.460076 0.018550 0.050900 0.209100 0.278550
24.645076 0.014770 0.043870 0.176400 0.235040
24.830076 0.015910 0.049360 0.196600 0.261870
25.015076 0.016190 0.048360 0.198600 0.263150
25.200076 0.015600 0.047230 0.192100 0.254930
25.385076 0.015320 0.054540 0.204600 0.274460
25.570076 0.016310 0.058460 0.198000 0.272770
25.755076 0.019090 0.070750 0.229900 0.319740
25.940076 0.022450 0.089390 0.252200 0.364040
26.125076 0.024900 0.109400 0.285600 0.419900
26.310076 0.024610 0.115100 0.293200 0.432910
26.495076 0.012040 0.087670 0.217400 0.317110
26.681076 0.006280 0.072030 0.167600 0.245910
26.866076 0.005217 0.071220 0.169600 0.246037
27.051076 0.009635 0.084710 0.200000 0.294345
27.236076 0.017550 0.118700 0.285200 0.421450
27.421076 0.020900 0.137000 0.321200 0.479100
27.606076 0.018170 0.103400 0.256400 0.377970
27.791076 0.019930 0.074100 0.218300 0.312330
27.976076 0.018630 0.067860 0.199400 0.285890
28.161076 0.020630 0.062370 0.186100 0.269100
28.346076 0.020150 0.052290 0.153300 0.225740
28.531076 0.023210 0.051510 0.140800 0.215520
28.716076 0.022390 0.057760 0.147100 0.227250
28.901076 0.019600 0.083840 0.164800 0.268240
29.086076 0.017180 0.116100 0.202300 0.335580
29.271076 0.013370 0.133800 0.222100 0.369270
29.456076 0.011510 0.111100 0.206900 0.329510
29.641076 0.013510 0.092530 0.228900 0.334940
29.826076 0.012630 0.085080 0.216200 0.313910
30.011076 0.013330 0.067270 0.200900 0.281500
30.196076 0.014120 0.072960 0.215000 0.302080
30.381076 0.015630 0.070940 0.211400 0.297970
30.566076 0.013890 0.059680 0.185200 0.258770
30.752076 0.014000 0.068870 0.199300 0.282170
30.937076 0.012740 0.061260 0.190800 0.264800
31.122076 0.012110 0.056070 0.201100 0.269280
31.307076 0.012470 0.062300 0.218500 0.293270
31.492076 0.015200 0.061520 0.230800 0.307520
31.677076 0.012820 0.054450 0.209500 0.276770
31.862076 0.010100 0.049320 0.196500 0.255920
32.047076 0.009622 0.046580 0.205000 0.261202
32.232076 0.009982 0.043840 0.203200 0.257022
32.417076 0.011530 0.052700 0.247300 0.311530
32.602076 0.012810 0.059540 0.281900 0.354250
32.787076 0.012150 0.050350 0.252200 0.314700
32.972076 0.010490 0.042580 0.199900 0.252970
33.157076 0.008281 0.035700 0.166900 0.210881
33.342076 0.007917 0.037360 0.202100 0.247377
33.527076 0.007781 0.034520 0.201700 0.244001
33.712076 0.006065 0.031640 0.188900 0.226605
33.897076 0.004722 0.028930 0.173800 0.207452
34.082076 0.005162 0.031170 0.176600 0.212932
34.267076 0.004211 0.027750 0.139700 0.171661
34.452076 0.002507 0.024790 0.113000 0.140297
34.637076 0.001959 0.014150 0.085970 0.102079
34.823076 0.001772 0.010200 0.060890 0.072862
35.008076 0.000720 0.004633 0.034160 0.039513
35.193076 0.000387 0.004065 0.031400 0.035852
35.378076 0.000394 0.002478 0.013850 0.016722
35.563076 0.000581 0.001833 0.010520 0.012934
35.748076 0.000215 0.001818 0.009619 0.011652
35.933076 0.000068 0.001282 0.007390 0.008740
36.118076 0.000033 0.000423 0.002269 0.002725
36.303076 0.000018 0.000367 0.002784 0.003169
36.488076 0.000006 0.000379 0.002741 0.003126
36.673076 0.000010 0.000340 0.002339 0.002689
36.858076 0.000015 0.000393 0.002659 0.003067
37.043076 0.000002 0.000174 0.001614 0.001790
37.228076 0.000000 0.000121 0.001127 0.001248
37.413076 0.000001 0.000118 0.001262 0.001381
37.598076 0.000004 0.000292 0.002911 0.003207
37.783076 0.000003 0.000130 0.001240 0.001372
37.968076 0.000008 0.000009 0.000140 0.000157
38.153076 0.000307 0.000090 0.001392 0.001789
38.338076 0.000567 0.000074 0.000626 0.001267
38.523076 0.000031 0.000003 0.000010 0.000044
38.708076 0.000000 0.000000 0.000000 0.000000
38.893076 0.000000 0.000000 0.000000 0.000000
39.079076 0.000000 0.000000 0.000000 0.000000
39.264076 0.000000 0.000000 0.000000 0.000000
39.449076 0.000000 0.000000 0.000000 0.000000
39.634076 0.000000 0.000000 0.000000 0.000000
39.819076 0.000000 0.000000 0.000000 0.000000
40.004076 0.000000 0.000000 0.000000 0.000000
40.189076 0.000000 0.000000 0.000000 0.000000
40.374076 0.000000 0.000000 0.000000 0.000000
40.559076 0.000000 0.000000 0.000000 0.000000
40.744076 0.000000 0.000000 0.000000 0.000000
